Time (s),Average Current (pA) (-60mV),Average Current (pA) (+60mV)
0.000000,-4.894128,7.439100
1.000000,-5.541468,7.531597
2.000000,-5.100574,7.334047
3.000000,-5.150724,7.534945
4.000000,-5.335439,7.397246
5.000000,-5.319141,7.460445
6.000000,-5.099739,7.564243
7.000000,-5.499259,7.534108
8.000000,-5.095560,7.490162
9.000000,-5.608334,7.247409
10.000000,-6.056750,7.341162
11.000000,-6.104391,7.113896
12.000000,-5.109351,7.290937
13.000000,-2.165602,8.481679
14.000000,-4.855263,7.625349
15.000000,-5.010724,7.670133
16.000000,-4.799680,7.481372
17.000000,-4.766666,7.009679
18.000000,-5.467498,7.405199
19.000000,-5.522244,7.732914
20.000000,-6.062601,7.601493
21.000000,-6.384390,7.768908
22.000000,-6.263614,7.977759
23.000000,-6.857044,7.719102
24.000000,-6.723313,8.160660
25.000000,-6.993283,8.047655
26.000000,-8.437994,6.694520
27.000000,-9.290945,8.350258
28.000000,-7.441281,8.356117
29.000000,-7.193043,8.268225
30.000000,-8.193934,7.421520
31.000000,-5.076754,9.731853
32.000000,-7.990831,8.559109
33.000000,-6.742120,7.809925
34.000000,-5.696094,7.544153
35.000000,-5.485887,7.685619
36.000000,-5.149888,7.244480
37.000000,-5.101829,7.565917
38.000000,-5.202544,6.762742
39.000000,-5.660990,7.264988
40.000000,-5.187918,7.174584
41.000000,-5.332096,7.128544
42.000000,-5.034127,7.038559
43.000000,-3.759506,7.678084
44.000000,-4.595323,7.379249
45.000000,-4.743263,7.290937
46.000000,-5.531857,7.266244
47.000000,-6.519793,7.896144
48.000000,-8.448023,8.528974
49.000000,-10.884011,9.710926
50.000000,-15.879273,12.355251
51.000000,-20.803074,16.013275
52.000000,-25.710155,17.371433
53.000000,-30.053480,19.618984
54.000000,-32.300991,21.472271
55.000000,-41.389248,25.623753
56.000000,-40.598148,26.236910
57.000000,-44.555325,28.454330
58.000000,-46.200634,28.960340
59.000000,-46.857586,28.777855
60.000000,-47.227016,29.571823
61.000000,-48.000565,29.928839
62.000000,-48.377518,30.668394
63.000000,-50.175362,31.631868
64.000000,-51.596668,31.916893
65.000000,-50.730762,33.612392
66.000000,-50.323303,31.708881
67.000000,-52.259472,31.673725
68.000000,-50.932613,32.808800
69.000000,-48.876919,30.346540
70.000000,-51.747116,32.734299
71.000000,-50.417332,33.357922
72.000000,-52.696602,32.525452
73.000000,-18.814663,11.154047
74.000000,-6.261943,7.679341
75.000000,-5.302007,7.532434
76.000000,-4.655085,7.427799
77.000000,-5.195858,7.386364
78.000000,-4.883262,7.674737
79.000000,-4.642129,7.666367
80.000000,-5.065470,7.460445
81.000000,-4.585711,7.265407
82.000000,-4.687263,7.429055
83.000000,-4.753293,7.323165
84.000000,-4.700218,7.399757
85.000000,-4.707323,7.259128
86.000000,-5.712392,6.685312
87.000000,-5.218843,7.318142
88.000000,-5.998660,6.460138
89.000000,-4.775442,8.854597
90.000000,-4.198728,7.473001
91.000000,-5.141948,7.180862
92.000000,-4.752039,7.551268
93.000000,-4.283145,7.137752
94.000000,-4.972694,7.533689
95.000000,-5.808094,8.151033
96.000000,-10.096672,9.643959
97.000000,-18.112995,13.575708
98.000000,-34.266415,23.525620
99.000000,-64.688911,43.944016
100.000000,-109.132240,79.684250
101.000000,-164.710724,114.828079
102.000000,-222.219131,161.218430
103.000000,-271.829071,207.199905
104.000000,-318.368591,245.656448
105.000000,-344.161560,267.580750
106.000000,-372.178528,288.377075
107.000000,-392.999603,306.840057
108.000000,-408.213135,324.283478
109.000000,-426.967590,333.257782
110.000000,-432.959991,346.585327
111.000000,-438.314270,349.894653
112.000000,-451.523102,356.124207
113.000000,-450.969360,361.632172
114.000000,-453.186371,368.476532
115.000000,-463.523773,374.644073
116.000000,-460.364380,372.293579
117.000000,-471.592712,379.361877
118.000000,-464.164398,379.808441
119.000000,-466.351318,382.774597
120.000000,-473.863647,385.605225
121.000000,-455.587250,353.052124
122.000000,-401.715515,315.842377
123.000000,-411.013092,323.716339
124.000000,-422.062622,339.163788
125.000000,-439.451782,357.404083
126.000000,-377.052216,181.687897
127.000000,-10.525028,8.861294
128.000000,-5.509708,7.652136
129.000000,-5.195858,7.518622
130.000000,-4.757053,7.261640
131.000000,-5.154485,7.424451
132.000000,-5.141530,7.081249
133.000000,-6.111914,7.692735
134.000000,-6.620090,6.055831
135.000000,-4.359623,7.324420
136.000000,-4.284817,7.643347
137.000000,-4.078788,7.074972
138.000000,-6.079317,5.900135
139.000000,-4.026968,9.412508
140.000000,-3.973057,7.695245
141.000000,-4.453234,7.372552
142.000000,-4.731143,7.456678
143.000000,-4.306966,7.154494
144.000000,-6.078899,8.076534
145.000000,-13.123166,12.193696
146.000000,-37.976192,29.308983
147.000000,-101.733582,79.508461
148.000000,-222.496201,180.060211
149.000000,-353.950592,301.408691
150.000000,-445.108582,389.217194
151.000000,-503.148193,448.012573
152.000000,-541.194580,490.899811
153.000000,-568.344421,518.140808
154.000000,-585.507874,545.127686
155.000000,-600.102966,564.076233
156.000000,-608.694763,572.321838
157.000000,-614.713074,582.547607
158.000000,-619.070557,587.558350
159.000000,-623.573181,593.869873
160.000000,-624.830261,598.296326
161.000000,-627.371948,599.900146
162.000000,-628.348145,600.004028
163.000000,-629.899475,606.341919
164.000000,-628.382812,601.424927
165.000000,-627.472595,603.346802
166.000000,-630.321106,606.683838
167.000000,-603.392273,437.501862
168.000000,-37.643955,17.400312
169.000000,-6.844925,7.781883
170.000000,-5.197948,7.658833
171.000000,-4.684338,7.379667
172.000000,-4.943023,7.157842
173.000000,-4.950545,7.097154
174.000000,-4.692278,7.467561
175.000000,-4.738666,7.312283
176.000000,-5.291559,7.592285
177.000000,-4.770427,7.187977
178.000000,-4.617473,7.188396
179.000000,-5.955198,6.155861
180.000000,-6.992865,6.013978
181.000000,-4.690188,7.888610
182.000000,-4.962247,7.592284
183.000000,-5.185410,5.952870
184.000000,-4.897471,7.514437
185.000000,-4.752039,7.945531
186.000000,-4.584039,7.535364
187.000000,-4.467025,6.995450
188.000000,-5.436991,8.090345
189.000000,-11.028607,11.531985
190.000000,-47.891071,38.230545
191.000000,-175.157196,153.878952
192.000000,-368.819794,338.605042
193.000000,-496.674347,471.655823
194.000000,-568.990112,557.359131
195.000000,-604.577087,607.658203
196.000000,-621.304260,639.815735
197.000000,-629.661621,655.864136
198.000000,-635.492371,666.610474
199.000000,-638.634521,675.500732
200.000000,-641.953613,682.853577
201.000000,-642.483154,685.555725
202.000000,-644.094971,687.460449
203.000000,-645.314819,688.826599
204.000000,-645.085022,688.354492
205.000000,-644.817078,687.046936
206.000000,-644.051880,686.412842
207.000000,-644.217773,686.677429
208.000000,-643.353210,685.617676
209.000000,-643.366089,684.787720
210.000000,-642.216003,683.837646
211.000000,-641.449585,682.997620
212.000000,-642.776978,680.592285
213.000000,-640.516785,682.341736
214.000000,-636.417542,679.244995
215.000000,-634.089417,683.423645
216.000000,-635.288818,681.001648
217.000000,-570.190796,355.432770
218.000000,-22.401155,12.897676
219.000000,-6.605464,7.503555
220.000000,-5.325409,7.345347
221.000000,-5.129410,7.940928
222.000000,-4.922963,7.431148
223.000000,-5.276514,7.583914
224.000000,-5.009053,7.573869
225.000000,-4.440697,7.498950
226.000000,-4.329115,7.476350
227.000000,-4.604935,7.404779
228.000000,-4.652159,7.096317
229.000000,-4.565651,7.696082
230.000000,-4.808456,7.093387
231.000000,-5.065053,7.367948
232.000000,-4.528040,7.542898
233.000000,-5.020754,7.405199
